ProDataStore
Tue Apr 29 14:13:26 2014
Remarks:
5
#HT (Fluorescence channel): 380.005
#HT (Absorbance channel): 380
#Samples per point: 8000
#Sample period: 12.5 us
#Temperature: 22.66 C
0
Properties:
1
Fluorescence -dual
Dimensions:
3
Time -ovs 
100
0.1,0.2,0.3,0.4,0.5,0.6,0.7,0.8,0.9,1,1.1,1.2,1.3,1.4,1.5,1.6,1.7,1.8,1.9,2,2.1,2.2,2.3,2.4,2.5,2.6,2.7,2.8,2.9,3,3.1,3.2,3.3,3.4,3.5,3.6,3.7,3.8,3.9,4,4.1,4.2,4.3,4.4,4.5,4.6,4.7,4.8,4.9,5,5.1,5.2,5.3,5.4,5.5,5.6,5.7,5.8,5.9,6,6.1,6.2,6.3,6.4,6.5,6.6,6.7,6.8,6.9,7,7.1,7.2,7.3,7.4,7.5,7.6,7.7,7.8,7.9,8,8.1,8.2,8.3,8.4,8.5,8.6,8.7,8.8,8.9,9,9.1,9.2,9.3,9.4,9.5,9.6,9.7,9.8,9.9,10

Wavelength -iter
1
250

Channel
2
3,1



-0.00214577,-0.00216723,-0.00218868,-0.00219345,-0.00217915,-0.00221014,-0.00217676,-0.00220776,-0.00217199,-0.00217199,-0.00217915,-0.00219822,-0.00218868,-0.0021863,-0.00219345,-0.00221014,-0.00220299,-0.00218868,-0.00217676,-0.00217199,-0.00217676,-0.00217199,-0.00220537,-0.00220299,-0.00219822,-0.00219584,-0.00221491,-0.00219584,-0.00218392,-0.00219345,-0.00220776,-0.00219345,-0.00221014,-0.00221014,-0.00219584,-0.00221253,-0.0021863,-0.00221253,-0.0021863,-0.00220776,-0.00220299,-0.00221014,-0.00220537,-0.00219345,-0.00221253,-0.00220776,-0.00220061,-0.00219345,-0.00218868,-0.00220776,-0.00222206,-0.00220061,-0.00218868,-0.00219822,-0.00219345,-0.00220776,-0.00219822,-0.00216723,-0.00218153,-0.0021863,-0.00217199,-0.00216961,-0.00218153,-0.00217438,-0.00220537,-0.00218153,-0.00218153,-0.00218868,-0.00217676,-0.00219822,-0.0021863,-0.00218392,-0.00221014,-0.00217199,-0.00220061,-0.00217676,-0.00217915,-0.00219822,-0.00217199,-0.00220061,-0.0021863,-0.00218868,-0.00217915,-0.00219345,-0.00221729,-0.00219107,-0.00221491,-0.00219584,-0.00218868,-0.00221014,-0.00220299,-0.00219345,-0.00220299,-0.00217438,-0.00220776,-0.00217438,-0.00217199,-0.00220537,-0.0021863,-0.00218153

-0.00318051,-0.00320673,-0.00320673,-0.00319243,-0.00320673,-0.00320673,-0.00319243,-0.00321865,-0.00320912,-0.0032115,-0.00321865,-0.00322104,-0.00322342,-0.00318766,-0.00321865,-0.00321627,-0.00322819,-0.00320912,-0.00321388,-0.00320435,-0.00321388,-0.00322581,-0.00321627,-0.00322104,-0.0032115,-0.00322104,-0.00321865,-0.00322581,-0.00322342,-0.00323296,-0.00322342,-0.00321388,-0.00323296,-0.00321865,-0.0032425,-0.00322819,-0.00322819,-0.00323057,-0.00323296,-0.00321865,-0.00323057,-0.00322104,-0.0032425,-0.00322819,-0.00322581,-0.00320435,-0.00321388,-0.00323057,-0.00321627,-0.00321388,-0.00322819,-0.00321388,-0.00323057,-0.00321388,-0.00320912,-0.00320912,-0.0032115,-0.00320196,-0.00321627,-0.00321388,-0.00321865,-0.00320673,-0.0032115,-0.00320435,-0.00321627,-0.00320673,-0.00320435,-0.00321627,-0.0032115,-0.00321627,-0.00323057,-0.00320673,-0.00321865,-0.00320196,-0.00318766,-0.00322342,-0.0032115,-0.00320196,-0.00320196,-0.0032115,-0.00320196,-0.00319004,-0.00320673,-0.00319004,-0.00319481,-0.00319004,-0.00318289,-0.00316859,-0.00317335,-0.00317812,-0.00317097,-0.00318527,-0.0031662,-0.00319004,-0.00318289,-0.00317335,-0.00315905,-0.00317097,-0.00318766,-0.00317097
History:
0
0
