ProDataStore
Tue Apr 29 13:54:05 2014
Remarks:
5
#HT (Fluorescence channel): 929.993
#HT (Absorbance channel): 930
#Samples per point: 8000
#Sample period: 12.5 us
#Temperature: 22.71 C
0
Properties:
1
Fluorescence -dual
Dimensions:
3
Time -ovs 
100
0.1,0.2,0.3,0.4,0.5,0.6,0.7,0.8,0.9,1,1.1,1.2,1.3,1.4,1.5,1.6,1.7,1.8,1.9,2,2.1,2.2,2.3,2.4,2.5,2.6,2.7,2.8,2.9,3,3.1,3.2,3.3,3.4,3.5,3.6,3.7,3.8,3.9,4,4.1,4.2,4.3,4.4,4.5,4.6,4.7,4.8,4.9,5,5.1,5.2,5.3,5.4,5.5,5.6,5.7,5.8,5.9,6,6.1,6.2,6.3,6.4,6.5,6.6,6.7,6.8,6.9,7,7.1,7.2,7.3,7.4,7.5,7.6,7.7,7.8,7.9,8,8.1,8.2,8.3,8.4,8.5,8.6,8.7,8.8,8.9,9,9.1,9.2,9.3,9.4,9.5,9.6,9.7,9.8,9.9,10

Wavelength -iter
1
250

Channel
2
3,1



0.881212,0.877274,0.855086,0.882507,0.855628,0.867556,0.857492,0.874422,0.933064,0.86969,0.895673,0.86829,0.895613,0.84581,0.876885,0.854858,0.855241,0.875452,0.937038,0.891226,0.849069,0.895162,0.846255,0.875366,0.878242,0.885261,0.869251,0.853274,0.837508,0.904809,0.866016,0.882767,0.824156,0.890506,0.871091,0.858727,0.837403,0.864244,0.905986,0.874103,0.857719,0.834931,0.829292,0.873087,0.820094,0.840235,0.859254,0.883456,0.848547,0.86334,0.846985,0.87499,0.927742,0.90015,0.865698,0.826314,0.911654,0.872453,0.879572,0.895186,0.880299,0.909062,0.888563,0.899077,0.914224,0.86823,0.878459,0.902136,0.90359,0.852755,0.901693,0.806778,0.902975,0.893527,0.896295,0.859752,0.800195,0.878163,0.912514,0.873373,0.834988,0.842233,0.846854,0.868765,0.919054,0.898786,0.8337,0.887795,0.837162,0.815828,0.798805,0.872884,0.857025,0.858222,0.861285,0.897177,0.834945,0.817576,0.905402,0.850406

0.502565,0.544556,0.526932,0.525725,0.52862,0.532701,0.485821,0.51086,0.530901,0.525823,0.511961,0.526963,0.521365,0.561912,0.558389,0.540522,0.498958,0.539945,0.652068,0.838757,0.867944,0.838216,0.796476,0.848001,0.852051,0.880511,0.802692,0.793443,0.806392,0.807951,0.80561,0.793384,0.749393,0.713325,0.733557,0.795084,0.758133,0.772057,0.806182,0.776847,0.736368,0.778609,0.779737,0.742033,0.736123,0.728112,0.798445,0.667816,0.681334,0.751598,0.713342,0.714953,0.747576,0.706909,0.649076,0.710638,0.716298,0.652791,0.685845,0.630489,0.644138,0.673116,0.661226,0.668917,0.656081,0.69891,0.709212,0.642963,0.635326,0.666271,0.717841,0.703273,0.672625,0.662838,0.709658,0.714357,0.671006,0.665772,0.634304,0.648807,0.719615,0.609024,0.698786,0.778635,0.69804,0.732561,0.809038,0.742541,0.777093,0.721374,0.732737,0.694681,0.679191,0.674527,0.694068,0.694359,0.646158,0.67252,0.659736,0.66197
History:
0
0
