ProDataStore
Tue Apr 29 14:08:31 2014
Remarks:
5
#HT (Fluorescence channel): 520.004
#HT (Absorbance channel): 520
#Samples per point: 8000
#Sample period: 12.5 us
#Temperature: 22.71 C
0
Properties:
1
Fluorescence -dual
Dimensions:
3
Time -ovs 
100
0.1,0.2,0.3,0.4,0.5,0.6,0.7,0.8,0.9,1,1.1,1.2,1.3,1.4,1.5,1.6,1.7,1.8,1.9,2,2.1,2.2,2.3,2.4,2.5,2.6,2.7,2.8,2.9,3,3.1,3.2,3.3,3.4,3.5,3.6,3.7,3.8,3.9,4,4.1,4.2,4.3,4.4,4.5,4.6,4.7,4.8,4.9,5,5.1,5.2,5.3,5.4,5.5,5.6,5.7,5.8,5.9,6,6.1,6.2,6.3,6.4,6.5,6.6,6.7,6.8,6.9,7,7.1,7.2,7.3,7.4,7.5,7.6,7.7,7.8,7.9,8,8.1,8.2,8.3,8.4,8.5,8.6,8.7,8.8,8.9,9,9.1,9.2,9.3,9.4,9.5,9.6,9.7,9.8,9.9,10

Wavelength -iter
1
250

Channel
2
3,1



0.000646115,0.000758172,0.000667572,0.00073433,0.00100136,0.000798703,0.000963212,0.000607968,0.000998975,0.00109673,0.000686646,0.000989438,0.000672341,0.000634194,0.000882149,0.000653267,0.000860692,0.000994206,0.000729561,0.000827313,0.000743866,0.000774861,0.000851155,0.00104189,0.000669957,0.0005126,0.000715256,0.000932217,0.000905991,0.000848771,0.00112772,0.000612736,0.000581742,0.000975133,0.000891686,0.000982285,0.00082016,0.000724793,0.00073433,0.00068903,0.000805855,0.00068903,0.000784398,0.000863076,0.000855923,0.000882149,0.000636578,0.0010252,0.000760556,0.000770093,0.000863076,0.00107765,0.00073433,0.00103474,0.000720025,0.000822545,0.000901223,0.000886918,0.000917912,0.0010562,0.000674725,0.000772477,0.000984669,0.000753403,0.000958443,0.000779629,0.000743866,0.000622273,0.00086546,0.000948907,0.00101805,0.000848771,0.000772477,0.00091076,0.000782014,0.000584126,0.00068903,0.000462532,0.000774861,0.00101566,0.000958443,0.000951291,0.000669957,0.000612736,0.0010109,0.000679493,0.00063181,0.00103951,0.000972749,0.000646115,0.000755787,0.000653267,0.00108719,0.000767708,0.000984669,0.000798703,0.000946522,0.000724793,0.000681878,0.000896454

-0.00214338,-0.00239134,-0.00226021,-0.00230074,-0.00219822,-0.0022769,-0.00232935,-0.00215292,-0.00233174,-0.00225544,-0.00226736,-0.00224114,-0.00230789,-0.0022769,-0.00211477,-0.00228882,-0.00231505,-0.00229836,-0.00229836,-0.00223637,-0.00227213,-0.00221491,-0.00222683,-0.00223637,-0.00213385,-0.00227213,-0.00225544,-0.00231981,-0.00219822,-0.00226736,-0.0022459,-0.0022769,-0.00227213,-0.00213623,-0.00218153,-0.00213862,-0.00234842,-0.00218392,-0.00233412,-0.00227451,-0.00230313,-0.00228167,-0.00221491,-0.0022316,-0.00223637,-0.00228405,-0.00227451,-0.00218392,-0.00235558,-0.00215531,-0.0021863,-0.0021863,-0.00225306,-0.00232697,-0.00225544,-0.00222683,-0.00229836,-0.00216007,-0.00223875,-0.00221014,-0.00224114,-0.00226021,-0.00227451,-0.00215292,-0.0021863,-0.00225544,-0.00223875,-0.00223875,-0.00219584,-0.0022769,-0.00225067,-0.00225067,-0.00219584,-0.00220299,-0.00228882,-0.00215531,-0.00223637,-0.00228405,-0.00222445,-0.00235558,-0.00230313,-0.00214815,-0.0022769,-0.00226736,-0.00222922,-0.00230313,-0.00224114,-0.00218868,-0.00226021,-0.00216723,-0.00217676,-0.00214338,-0.00226021,-0.00223398,-0.00221729,-0.00226498,-0.00224829,-0.00220299,-0.00213385,-0.0022316
History:
0
0
