ProDataStore
Tue Apr 29 14:02:11 2014
Remarks:
5
#HT (Fluorescence channel): 699.997
#HT (Absorbance channel): 700
#Samples per point: 8000
#Sample period: 12.5 us
#Temperature: 22.71 C
0
Properties:
1
Fluorescence -dual
Dimensions:
3
Time -ovs 
100
0.1,0.2,0.3,0.4,0.5,0.6,0.7,0.8,0.9,1,1.1,1.2,1.3,1.4,1.5,1.6,1.7,1.8,1.9,2,2.1,2.2,2.3,2.4,2.5,2.6,2.7,2.8,2.9,3,3.1,3.2,3.3,3.4,3.5,3.6,3.7,3.8,3.9,4,4.1,4.2,4.3,4.4,4.5,4.6,4.7,4.8,4.9,5,5.1,5.2,5.3,5.4,5.5,5.6,5.7,5.8,5.9,6,6.1,6.2,6.3,6.4,6.5,6.6,6.7,6.8,6.9,7,7.1,7.2,7.3,7.4,7.5,7.6,7.7,7.8,7.9,8,8.1,8.2,8.3,8.4,8.5,8.6,8.7,8.8,8.9,9,9.1,9.2,9.3,9.4,9.5,9.6,9.7,9.8,9.9,10

Wavelength -iter
1
250

Channel
2
3,1



0.0407076,0.0416422,0.0428438,0.0415278,0.0417161,0.0428438,0.0436831,0.0386453,0.0397969,0.0420189,0.0425387,0.0406647,0.0391007,0.0424886,0.0408674,0.0401616,0.0414634,0.0377441,0.0397468,0.0404692,0.0426388,0.0403762,0.0391937,0.041225,0.0374937,0.0393296,0.0423122,0.042224,0.040884,0.0398803,0.039618,0.0401831,0.0416112,0.0413585,0.039239,0.0401545,0.0401473,0.0395847,0.0399876,0.0423599,0.0408364,0.0415016,0.0414086,0.0435925,0.0392247,0.0413275,0.0418878,0.0435353,0.0430823,0.0424886,0.0402904,0.0422812,0.0427532,0.0395847,0.0412226,0.0405813,0.0397206,0.0432515,0.0416851,0.0430417,0.0400257,0.0389314,0.036602,0.0387979,0.0396657,0.0433803,0.0425625,0.0399971,0.0407887,0.0399876,0.0384379,0.0416422,0.0422478,0.04246,0.0402427,0.042727,0.0415969,0.0406885,0.0408674,0.042274,0.0446368,0.0405526,0.0413513,0.0400973,0.0403524,0.0414491,0.0412941,0.0402594,0.0408006,0.0403238,0.0408411,0.0398469,0.0410676,0.0396252,0.041585,0.0419236,0.0416756,0.0394011,0.0395656,0.0414181

0.0141692,0.014112,0.0141168,0.0158262,0.0133205,0.0159288,0.0154448,0.0158048,0.0178027,0.0149989,0.0168371,0.0149846,0.0156546,0.0156927,0.0161386,0.0143051,0.0153589,0.0164437,0.0169063,0.0143194,0.0136185,0.0128841,0.0164938,0.0167346,0.0158572,0.0166464,0.015378,0.0162959,0.0165773,0.0165558,0.0165629,0.0155163,0.0159979,0.0171065,0.0172281,0.0164104,0.0146842,0.0159955,0.0157309,0.0159121,0.0158286,0.0172711,0.0177288,0.0180483,0.0157833,0.0163436,0.0145435,0.0150085,0.0164604,0.0163436,0.0169277,0.0145173,0.0166297,0.0168133,0.0182676,0.0165534,0.0175667,0.017252,0.0158,0.0179935,0.0170374,0.0161314,0.0145197,0.0141502,0.015111,0.0141525,0.0154734,0.0142789,0.0143719,0.0144196,0.0145125,0.0143004,0.0147033,0.0159454,0.0175285,0.0161266,0.0148296,0.0151849,0.0139546,0.0135899,0.0150585,0.0137639,0.0141287,0.0125599,0.0142932,0.0127792,0.0137878,0.0137401,0.0132632,0.0136829,0.0130177,0.0128722,0.0126362,0.0123954,0.0120187,0.013454,0.0136972,0.0143123,0.0132775,0.0133514
History:
0
0
