ProDataStore
Tue Apr 29 14:01:49 2014
Remarks:
5
#HT (Fluorescence channel): 710.007
#HT (Absorbance channel): 710
#Samples per point: 8000
#Sample period: 12.5 us
#Temperature: 22.71 C
0
Properties:
1
Fluorescence -dual
Dimensions:
3
Time -ovs 
100
0.1,0.2,0.3,0.4,0.5,0.6,0.7,0.8,0.9,1,1.1,1.2,1.3,1.4,1.5,1.6,1.7,1.8,1.9,2,2.1,2.2,2.3,2.4,2.5,2.6,2.7,2.8,2.9,3,3.1,3.2,3.3,3.4,3.5,3.6,3.7,3.8,3.9,4,4.1,4.2,4.3,4.4,4.5,4.6,4.7,4.8,4.9,5,5.1,5.2,5.3,5.4,5.5,5.6,5.7,5.8,5.9,6,6.1,6.2,6.3,6.4,6.5,6.6,6.7,6.8,6.9,7,7.1,7.2,7.3,7.4,7.5,7.6,7.7,7.8,7.9,8,8.1,8.2,8.3,8.4,8.5,8.6,8.7,8.8,8.9,9,9.1,9.2,9.3,9.4,9.5,9.6,9.7,9.8,9.9,10

Wavelength -iter
1
250

Channel
2
3,1



0.0496149,0.0486255,0.0444126,0.0478101,0.0464392,0.0483728,0.0437737,0.0457049,0.0451875,0.0469709,0.0477195,0.049038,0.0485921,0.0465942,0.0469208,0.0460077,0.0497222,0.0450087,0.0472808,0.0458265,0.048604,0.0453377,0.0497008,0.0493884,0.0455594,0.0495291,0.0460506,0.046649,0.0509024,0.0462175,0.0478816,0.0506688,0.0432492,0.0473404,0.0480414,0.047729,0.0472308,0.0477219,0.049758,0.0450015,0.0468564,0.0455904,0.0487185,0.0477481,0.0495363,0.0481081,0.0488186,0.0452876,0.0494743,0.0457883,0.050149,0.048306,0.0445724,0.0481916,0.0438929,0.0503517,0.0478292,0.0499344,0.0473953,0.0445724,0.0457597,0.0454903,0.0482273,0.0466872,0.0490666,0.0467182,0.046835,0.0484825,0.0452423,0.0453091,0.0427556,0.0474525,0.0447274,0.0463486,0.0475788,0.0489402,0.0471783,0.0471592,0.047381,0.0458503,0.0492335,0.0472021,0.0459886,0.0441075,0.0450421,0.0472379,0.0489092,0.0482083,0.0450898,0.0447846,0.04349,0.0453902,0.0493908,0.0464273,0.0498104,0.0467277,0.0459004,0.0449753,0.0489641,0.0462318

0.0195074,0.0191164,0.0197983,0.0183082,0.0182486,0.0175595,0.0197816,0.0178576,0.0184727,0.0176311,0.0165653,0.0185633,0.0182247,0.0186634,0.0182319,0.0174308,0.0152373,0.0171471,0.0170469,0.0160074,0.0175762,0.0175619,0.0183034,0.017426,0.0172043,0.0159574,0.0171924,0.0178957,0.017829,0.0184512,0.0188232,0.0183511,0.0190377,0.0190902,0.0158095,0.020113,0.0170279,0.0154996,0.0171971,0.01688,0.0164533,0.0181842,0.018332,0.0192714,0.0199533,0.0172615,0.0174952,0.0156093,0.015471,0.0156427,0.0165081,0.0162578,0.0162101,0.0166512,0.0145054,0.0150156,0.0138044,0.0147486,0.0150323,0.0159168,0.0156689,0.0140476,0.0163794,0.0134063,0.0141335,0.0149965,0.0148511,0.013907,0.0133967,0.0152779,0.0151444,0.0145483,0.0158453,0.0141931,0.0153089,0.0153875,0.0154281,0.0156784,0.0143099,0.014205,0.0146604,0.0172877,0.0150514,0.0165582,0.0166178,0.0147367,0.0170136,0.0151229,0.0179458,0.0176978,0.0178266,0.0195503,0.0186348,0.0200796,0.0190377,0.0191045,0.0202155,0.019126,0.0194097,0.0176406
History:
0
0
